File: Tensile_test/PlasticData.txt
10 0
10.1136 1
10.2273 2
10.3409 3
10.4545 4
10.5682 5
10.6818 6
10.7955 7
10.9091 8
11.0227 9
11.1364 10
11.25 11
11.3636 12
11.4773 13
11.5909 14
11.7045 15
11.8182 16
11.9318 17
12.0455 18
12.1591 19
12.2727 20
12.3864 21
12.5 22
12.6136 23
12.7273 24
12.8409 25
12.9545 26
13.0682 27
13.1818 28
13.2955 29
13.4091 30
13.5227 31
13.6364 32
13.75 33
13.8636 34
13.9773 35
14.0909 36
14.2045 37
14.3182 38
14.4318 39
14.5455 40
14.6591 41
14.7727 42
14.8864 43
15 44
16.1111 45
17.2222 46
18.3333 47
19.4444 48
20 48.5
20.5567 49
21.67 50
22.78 51
23.89 52
25 53
26.665 54
28.33 55
30 56
31.6667 57
33.3333 58
35 59
37 60
39 61
40 61.5
41 62
43 63
45 64
47 65
49 66
50 66.5
51.25 67
53.75 68
55 68.5
56 69
58 70
60 71
62.5 72
65 73
67 74
69 75
70 75.5
71 76
73 77
75 78
76.25 79
77.5 80
78.75 81
80 82
81.25 83
82.5 84
83.75 85
85 86
85.8325 87
86.665 88
87.4975 89
88.33 90
89.165 91
90 92
90.8333 93
91.6667 94
92.5 95
93.3333 96
94.1667 97
95 98
95.665 99
96.33 100
96.998 101
97.666 102
98 102.5