File: Tensile_test/rubber_data_sig.txt
0
0.07
0.14
0.21
0.28
0.35
0.42
0.49
0.56
0.62
0.68
0.74
0.8
0.85
0.9
0.95
1
1.05
1.1
1.14
1.18
1.22
1.26
1.3
1.34
1.38
1.42
1.45
1.48
1.51
1.54
1.57
1.6
1.62
1.64
1.66
1.68
1.7
1.72
1.74
1.76
1.78
1.8
1.82
1.84
1.86
1.88
1.9
1.915
1.93
1.945
1.96
1.975
1.99
2.005
2.02
2.035
2.05
2.065
2.08
2.09
2.1
2.11
2.12
2.13
2.14
2.15
2.16
2.17
2.18
2.19
2.2
2.21
2.22
2.23
2.24
2.25
2.26
2.27
2.28
2.29
2.3
2.31
2.32
2.33
2.34
2.35
2.358
2.366
2.374
2.382
2.39
2.398
2.406
2.414
2.422
2.43
2.438
2.446
2.454
2.462
2.47
2.478
2.486
2.494
2.502
2.51
2.518
2.526
2.534
2.542
2.55
2.558
2.566
2.574
2.582
2.59
2.6
2.61
2.62
2.63
2.64
2.65
2.66
2.67
2.68
2.69
2.7
2.715
2.73
2.745
2.76
2.775
2.79
2.81
2.83
2.85
2.87
2.89
2.91
2.93
2.95
2.98
3.01
3.04
3.07
3.1
3.14
3.18
3.22
3.26
3.3
3.35
3.4
3.45
3.5
3.56
3.62
3.68
3.75
3.82