File: Tensile_test/steel_data_sig.txt
0
0.25
0.5
0.75
1
1.25
1.5
1.75
2
2.25
2.5
2.75
3
3.25
3.5
3.75
4
4.25
4.5
4.75
5
4.75
4.5
4.75
4.5
4.75
4.5
4.75
4.5
4.75
4.5
4.65
4.8
4.95
5.08
5.21
5.33
5.44
5.55
5.66
5.75
5.84
5.93
6.01
6.08
6.15
6.22
6.28
6.33
6.38
6.43
6.47
6.51
6.55
6.58
6.61
6.64
6.67
6.7
6.73
6.76
6.79
6.81
6.83
6.85
6.87
6.89
6.91
6.93
6.94
6.96
6.97
6.98
6.99
6.998
7
6.998
6.99
6.985
6.98
6.97
6.96
6.95
6.94
6.93
6.92
6.9
6.88
6.86
6.84
6.82
6.8
6.78
6.76
6.73
6.7
6.67
6.64
6.61
6.58
6.55
6.52
6.49
6.46
6.43
6.39
6.35
6.31
6.27
6.23
6.19
6.15
6.11
6.07
6.02
5.97
5.92
5.87
5.82
5.77
5.72
5.66
5.6
5.54
5.48
5.42
5.35
5.28
5.21
5.14
5.07