File: Tensile_test/steel_data_true_sig.txt
0
0.25
0.5
0.75
1
1.25
1.5
1.75
2
2.25
2.5
2.75
3
3.25
3.5
3.75
4
4.25
4.5
4.75
5
4.75
4.5
4.75
4.5
4.75
4.5
4.75
4.5
4.75
4.5
4.65
4.8
4.95
5.08
5.21
5.33
5.44
5.55
5.66
5.75
5.84
5.94
6.02
6.095
6.17
6.24
6.31
6.36
6.42
6.47
6.52
6.57
6.62
6.67
6.71
6.74
6.78
6.82
6.85
6.88
6.91
6.94
6.97
7
7.03
7.06
7.09
7.12
7.15
7.17
7.19
7.21
7.23
7.25
7.27
7.29
7.31
7.32
7.33
7.34
7.35
7.36
7.37
7.38
7.39
7.4
7.41
7.415
7.42
7.425
7.43
7.445
7.46
7.475
7.48
7.5
7.52
7.54
7.56
7.58
7.6
7.62
7.65
7.68
7.71
7.74
7.77
7.8
7.83
7.86
7.89
7.92
7.96
8
8.04
8.08
8.12
8.17
8.22
8.27
8.32
8.38
8.44
8.5
8.56
8.64
8.71
8.78
8.86
8.94